#Wave		#Intensity
1483.960938	18935.386719
1482.861328	18858.005859
1481.763672	18820.279297
1480.664063	18875.843750
1479.564453	18894.994141
1478.464844	19055.134766
1477.367188	18717.269531
1476.265625	18736.441406
1475.166016	18941.978516
1474.066406	18831.572266
1472.966797	18778.009766
1471.865234	19012.955078
1470.765625	19027.511719
1469.664063	18785.474609
1468.562500	19049.800781
1467.460938	18982.628906
1466.359375	18833.787109
1465.257813	18909.628906
1464.156250	19144.240234
1463.052734	18986.380859
1461.951172	19021.333984
1460.847656	19013.195313
1459.746094	19088.935547
1458.642578	19060.390625
1457.539063	19056.785156
1456.435547	19073.570313
1455.332031	18913.669922
1454.228516	19107.121094
1453.123047	19062.753906
1452.019531	19231.203125
1450.916016	18856.375000
1449.810547	18997.644531
1448.705078	19197.687500
1447.599609	19049.289063
1446.494141	19029.863281
1445.388672	18922.257813
1444.283203	19160.599609
1443.177734	19145.685547
1442.070313	19505.935547
1440.964844	19111.357422
1439.857422	19137.128906
1438.751953	19583.007813
1437.644531	19152.507813
1436.537109	19250.507813
1435.429688	19298.808594
1434.322266	19457.683594
1433.214844	19302.833984
1432.105469	19005.906250
1430.998047	19151.212891
1429.888672	19167.914063
1428.781250	19360.490234
1427.671875	19325.292969
1426.562500	18888.890625
1425.453125	19133.244141
1424.343750	19204.009766
1423.234375	19119.308594
1422.123047	19255.371094
1421.013672	19224.738281
1419.904297	19335.962891
1418.792969	19082.468750
1417.681641	19380.484375
1416.570313	19174.333984
1415.458984	19224.740234
1414.347656	19223.392578
1413.236328	19109.595703
1412.125000	19004.835938
1411.013672	19037.251953
1409.900391	18932.544922
1408.789063	18991.929688
1407.675781	19174.873047
1406.562500	18773.666016
1405.449219	18725.238281
1404.335938	18946.304688
1403.222656	18891.126953
1402.109375	18755.158203
1400.996094	18996.294922
1399.880859	18604.546875
1398.767578	18706.523438
1397.652344	18747.896484
1396.537109	18697.304688
1395.421875	18366.447266
1394.308594	18676.884766
1393.191406	18707.025391
1392.076172	18253.095703
1390.960938	18482.718750
1389.845703	18546.482422
1388.728516	18549.750000
1387.613281	18505.988281
1386.496094	18701.808594
1385.378906	18335.689453
1384.261719	18278.564453
1383.144531	18465.369141
1382.027344	18589.458984
1380.910156	18456.265625
1379.791016	18133.025391
1378.673828	18411.394531
1377.554688	18452.685547
1376.437500	18641.484375
1375.318359	18604.500000
1374.199219	18565.294922
1373.080078	18604.292969
1371.960938	18674.546875
1370.841797	18318.248047
1369.722656	18509.093750
1368.601563	18563.699219
1367.482422	18738.806641
1366.361328	18641.609375
1365.240234	18533.294922
1364.119141	18576.701172
1363.000000	18613.402344
1361.878906	18462.785156
1360.755859	18483.886719
1359.634766	18703.361328
1358.513672	18662.009766
1357.390625	18772.189453
1356.269531	18659.554688
1355.146484	18555.869141
1354.023438	18650.417969
1352.900391	18925.279297
1351.777344	18928.455078
1350.654297	19065.169922
1349.531250	18552.056641
1348.408203	19089.265625
1347.283203	18847.718750
1346.160156	18657.414063
1345.035156	18807.394531
1343.910156	19021.792969
1342.787109	18671.519531
1341.662109	19143.660156
1340.537109	18882.373047
1339.410156	18812.236328
1338.285156	18946.472656
1337.160156	18896.337891
1336.033203	19177.050781
1334.908203	18947.076172
1333.781250	19334.212891
1332.654297	19124.265625
1331.527344	18934.365234
1330.400391	18864.322266
1329.273438	19240.097656
1328.146484	19123.455078
1327.017578	18980.251953
1325.890625	19324.765625
1324.761719	19166.062500
1323.634766	19342.009766
1322.505859	19059.298828
1321.376953	19133.310547
1320.248047	19218.367188
1319.119141	19064.257813
1317.990234	18919.060547
1316.861328	19130.271484
1315.730469	19275.015625
1314.601563	19019.230469
1313.470703	19026.787109
1312.339844	19142.714844
1311.208984	19309.460938
1310.080078	19173.248047
1308.949219	19134.347656
1307.816406	18927.492188
1306.685547	18974.830078
1305.554688	18991.218750
1304.421875	18901.576172
1303.291016	19189.617188
1302.158203	18998.396484
1301.025391	19290.728516
1299.892578	19037.755859
1298.759766	19243.904297
1297.626953	19233.742188
1296.494141	19020.626953
1295.361328	18933.312500
1294.226563	18826.183594
1293.093750	18844.767578
1291.958984	18997.814453
1290.824219	19049.421875
1289.689453	19043.712891
1288.554688	18815.482422
1287.419922	18792.195313
1286.285156	18656.595703
1285.150391	18692.800781
1284.013672	18638.726563
1282.878906	18780.578125
1281.742188	18647.279297
1280.607422	18617.445313
1279.470703	18812.021484
1278.333984	18623.798828
1277.197266	18899.669922
1276.060547	19085.289063
1274.921875	18804.787109
1273.785156	18748.580078
1272.648438	18778.097656
1271.509766	18662.591797
1270.371094	18758.015625
1269.234375	18508.578125
1268.095703	18705.007813
1266.957031	18857.453125
1265.818359	18663.011719
1264.677734	18789.072266
1263.539063	18524.496094
1262.400391	18466.244141
1261.259766	18824.783203
1260.119141	19001.160156
1258.980469	18638.064453
1257.839844	18649.986328
1256.699219	18712.318359
1255.558594	18719.837891
1254.417969	19016.580078
1253.275391	18945.175781
1252.134766	19108.160156
1250.992188	19201.005859
1249.851563	19079.246094
1248.708984	19095.443359
1247.566406	18995.634766
1246.423828	18937.439453
1245.281250	19100.240234
1244.138672	19028.919922
1242.996094	19101.972656
1241.853516	19220.919922
1240.708984	19217.390625
1239.564453	19084.894531
1238.421875	19328.347656
1237.277344	19346.648438
1236.132813	19347.464844
1234.988281	19249.988281
1233.843750	19508.519531
1232.699219	19640.310547
1231.552734	19595.226563
1230.408203	19665.837891
1229.261719	19686.232422
1228.117188	19817.892578
1226.970703	19864.427734
1225.824219	19858.597656
1224.677734	19697.943359
1223.531250	20027.906250
1222.384766	19980.630859
1221.238281	19963.884766
1220.089844	20324.123047
1218.943359	20481.611328
1217.794922	20205.566406
1216.646484	20447.953125
1215.498047	20156.773438
1214.351563	20296.757813
1213.201172	20495.458984
1212.052734	20646.208984
1210.904297	20611.955078
1209.755859	20790.908203
1208.605469	20908.892578
1207.457031	20798.494141
1206.306641	20394.607422
1205.156250	20936.501953
1204.005859	20773.992188
1202.855469	21093.962891
1201.705078	20846.750000
1200.554688	20925.464844
1199.402344	21262.605469
1198.251953	21404.185547
1197.099609	21298.212891
1195.949219	21363.761719
1194.796875	21589.884766
1193.644531	21575.068359
1192.492188	21341.138672
1191.339844	21536.771484
1190.187500	21623.898438
1189.033203	21713.160156
1187.880859	21648.468750
1186.726563	21826.556641
1185.574219	22110.767578
1184.419922	21842.367188
1183.265625	21989.992188
1182.111328	22133.230469
1180.957031	22038.208984
1179.802734	22120.761719
1178.646484	22211.941406
1177.492188	22333.384766
1176.337891	22435.308594
1175.181641	22253.777344
1174.025391	22355.675781
1172.869141	22234.777344
1171.712891	22509.625000
1170.556641	22609.255859
1169.400391	22966.070313
1168.244141	22804.083984
1167.085938	22767.476563
1165.929688	22910.189453
1164.771484	23113.326172
1163.615234	23029.169922
1162.457031	23404.939453
1161.298828	23260.314453
1160.140625	23704.964844
1158.982422	23722.181641
1157.822266	23929.253906
1156.664063	23961.519531
1155.503906	23788.880859
1154.345703	23881.537109
1153.185547	23814.617188
1152.025391	24094.763672
1150.865234	24010.585938
1149.705078	24163.460938
1148.544922	24374.445313
1147.384766	24921.371094
1146.224609	24542.058594
1145.062500	24653.808594
1143.902344	24993.708984
1142.740234	25053.673828
1141.578125	25300.839844
1140.416016	25541.457031
1139.253906	25616.341797
1138.091797	25643.882813
1136.929688	25978.916016
1135.765625	25877.376953
1134.603516	25786.621094
1133.439453	26368.597656
1132.277344	26834.324219
1131.113281	26330.943359
1129.949219	26843.757813
1128.785156	27051.419922
1127.621094	27149.496094
1126.457031	27316.232422
1125.291016	27540.859375
1124.126953	28108.767578
1122.960938	27640.123047
1121.796875	28001.857422
1120.630859	28299.111328
1119.464844	28293.884766
1118.298828	28526.650391
1117.132813	28613.560547
1115.966797	28966.201172
1114.798828	29091.566406
1113.632813	29000.492188
1112.464844	29543.505859
1111.298828	29617.289063
1110.130859	29721.021484
1108.962891	29918.914063
1107.794922	30202.349609
1106.626953	30601.246094
1105.458984	30501.441406
1104.289063	30504.359375
1103.121094	30917.943359
1101.951172	31209.480469
1100.783203	31160.945313
1099.613281	31587.000000
1098.443359	31743.593750
1097.273438	31682.160156
1096.103516	32058.738281
1094.933594	32356.136719
1093.761719	32706.816406
1092.591797	32401.812500
1091.419922	32850.558594
1090.250000	33098.488281
1089.078125	33000.589844
1087.906250	33323.078125
1086.734375	33679.582031
1085.562500	33965.558594
1084.390625	33897.421875
1083.218750	34486.019531
1082.044922	34349.589844
1080.873047	34882.468750
1079.699219	34880.261719
1078.525391	35346.789063
1077.351563	35163.429688
1076.177734	35457.210938
1075.003906	35663.578125
1073.830078	35980.574219
1072.656250	36084.585938
1071.480469	36526.949219
1070.306641	36792.535156
1069.130859	36868.675781
1067.955078	37121.335938
1066.779297	37490.859375
1065.603516	37362.703125
1064.427734	37810.699219
1063.251953	37892.945313
1062.076172	38287.546875
1060.898438	38745.742188
1059.722656	38623.828125
1058.544922	38680.367188
1057.367188	39002.320313
1056.189453	39615.019531
1055.011719	39478.167969
1053.833984	39557.839844
1052.656250	39881.503906
1051.478516	40355.671875
1050.298828	40498.765625
1049.121094	40629.078125
1047.941406	41081.632813
1046.761719	41317.781250
1045.582031	41437.261719
1044.402344	41685.964844
1043.222656	41970.593750
1042.042969	42375.859375
1040.863281	42236.652344
1039.681641	42622.652344
1038.501953	43055.085938
1037.320313	43053.414063
1036.138672	43240.097656
1034.957031	43883.765625
1033.775391	43463.042969
1032.593750	43791.257813
1031.412109	43958.621094
1030.228516	44459.996094
1029.046875	44377.714844
1027.863281	44663.226563
1026.681641	45187.429688
1025.498047	44857.843750
1024.314453	45280.410156
1023.130859	45413.464844
1021.947266	45552.800781
1020.761719	45951.769531
1019.578125	46029.730469
1018.392578	45926.160156
1017.208984	46375.468750
1016.023438	46858.359375
1014.837891	47104.824219
1013.652344	46705.871094
1012.466797	47097.757813
1011.281250	47207.003906
1010.095703	47231.898438
1008.908203	47185.128906
1007.722656	47633.503906
1006.535156	47656.187500
1005.349609	47533.539063
1004.162109	47756.273438
1002.974609	47671.539063
1001.787109	47835.218750
1000.597656	48512.347656
999.410156	48086.632813
998.222656	48050.273438
997.033203	47885.621094
995.843750	48267.800781
994.656250	48225.113281
993.466797	48331.691406
992.277344	48518.097656
991.087891	48540.519531
989.896484	48560.828125
988.707031	48621.035156
987.517578	48714.824219
986.326172	48768.675781
985.134766	48635.652344
983.945313	48567.750000
982.753906	48669.859375
981.562500	48452.988281
980.371094	48745.980469
979.177734	48634.046875
977.986328	48637.488281
976.792969	48546.574219
975.601563	48577.281250
974.408203	48339.695313
973.214844	48749.703125
972.021484	48736.343750
970.828125	48620.343750
969.634766	48983.984375
968.441406	49100.402344
967.246094	48609.648438
966.052734	48573.285156
964.857422	48744.117188
963.662109	49182.699219
962.468750	48957.964844
961.273438	48940.375000
960.076172	48763.859375
958.880859	49308.722656
957.685547	48651.410156
956.488281	48782.265625
955.292969	48764.710938
954.095703	48715.816406
952.898438	48867.464844
951.703125	48622.253906
950.505859	49318.828125
949.306641	49031.867188
948.109375	49112.359375
946.912109	48754.585938
945.712891	48924.812500
944.515625	49326.519531
943.316406	48906.328125
942.117188	49445.507813
940.917969	49442.417969
939.718750	49370.539063
938.519531	49394.550781
937.320313	49626.914063
936.119141	49327.953125
934.919922	49497.750000
933.718750	49588.343750
932.517578	49191.687500
931.316406	50058.777344
930.115234	49764.160156
928.914063	49455.082031
927.712891	49345.851563
926.511719	49900.218750
925.308594	49493.535156
924.107422	49581.886719
922.904297	49121.355469
921.701172	49773.023438
920.498047	49451.863281
919.294922	49107.964844
918.091797	49410.253906
916.888672	49151.644531
915.683594	49134.011719
914.480469	49286.628906
913.275391	48764.550781
912.070313	49170.371094
910.867188	49165.183594
909.662109	48736.777344
908.455078	48418.457031
907.250000	48515.023438
906.044922	48972.324219
904.837891	48332.812500
903.632813	48132.941406
902.425781	48045.042969
901.218750	47687.832031
900.011719	47264.468750
898.804688	47586.847656
897.597656	47275.472656
896.390625	46962.144531
895.183594	46642.718750
893.974609	46118.535156
892.765625	45969.054688
891.558594	46297.496094
890.349609	45455.148438
889.140625	45928.308594
887.931641	45566.007813
886.722656	45588.328125
885.511719	44730.210938
884.302734	44725.812500
883.091797	44372.269531
881.882813	44056.035156
880.671875	43560.253906
879.460938	43545.746094
878.250000	43217.453125
877.039063	42930.566406
875.826172	43242.222656
874.615234	42280.773438
873.402344	42575.925781
872.191406	41905.761719
870.978516	41660.621094
869.765625	41469.175781
868.552734	41005.718750
867.339844	40690.812500
866.126953	40761.328125
864.912109	40461.003906
863.699219	40092.824219
862.484375	39724.785156
861.271484	39606.003906
860.056641	39176.437500
858.841797	39103.078125
857.626953	38778.707031
856.412109	38407.140625
855.195313	38531.421875
853.980469	38020.199219
852.763672	37943.003906
851.548828	37752.773438
850.332031	37638.660156
849.115234	37462.937500
847.898438	36944.179688
846.681641	36501.617188
845.464844	36843.746094
844.246094	36682.671875
843.029297	36583.246094
841.810547	36208.820313
840.591797	35855.050781
839.373047	35907.664063
838.156250	35789.992188
836.935547	35510.335938
835.716797	35778.285156
834.498047	35554.089844
833.277344	35373.023438
832.058594	35472.785156
830.837891	35115.585938
829.617188	35530.839844
828.396484	35501.472656
827.175781	35273.476563
825.955078	35164.316406
824.734375	35006.066406
823.511719	35373.855469
822.291016	35346.578125
821.068359	35505.480469
819.845703	34825.687500
818.625000	35559.285156
817.402344	35143.500000
816.177734	35388.167969
814.955078	35330.246094
813.732422	35499.167969
812.507813	35238.980469
811.285156	35624.375000
810.060547	35192.703125
808.835938	35798.476563
807.611328	35656.828125
806.386719	35860.175781
805.162109	36185.886719
803.935547	36052.394531
802.710938	36108.667969
801.484375	36118.003906
800.257813	36586.140625
799.033203	36267.140625
797.806641	36610.726563
796.580078	36679.046875
795.351563	36415.222656
794.125000	36383.730469
792.898438	36814.593750
791.669922	36683.250000
790.441406	36767.769531
789.214844	36783.039063
787.986328	37197.203125
786.757813	37338.539063
785.527344	36897.976563
784.298828	37576.289063
783.070313	37367.679688
781.839844	37722.347656
780.609375	37887.824219
779.380859	37717.882813
778.150391	37879.226563
776.919922	37859.691406
775.689453	38291.093750
774.457031	38165.875000
773.226563	38586.894531
771.994141	38615.945313
770.763672	38508.996094
769.531250	38623.273438
768.298828	38794.312500
767.066406	38543.359375
765.833984	39004.359375
764.601563	39053.554688
763.367188	39110.839844
762.134766	39524.832031
760.900391	39630.632813
759.666016	39460.835938
758.433594	39732.710938
757.199219	39575.105469
755.962891	39555.257813
754.728516	39630.566406
753.494141	39975.054688
752.257813	39811.441406
751.023438	40319.648438
749.787109	40016.441406
748.550781	40257.425781
747.314453	40091.851563
746.078125	40443.917969
744.841797	40814.039063
743.605469	40597.917969
742.367188	40769.835938
741.128906	40905.324219
739.892578	41109.425781
738.654297	41063.039063
737.416016	41093.390625
736.177734	40921.859375
734.939453	41024.878906
733.699219	41214.621094
732.460938	41402.265625
731.220703	41180.375000
729.982422	41597.847656
728.742188	41613.917969
727.501953	41631.996094
726.261719	41714.558594
725.019531	41512.957031
723.779297	41661.988281
722.539063	41307.382813
721.296875	41649.726563
720.054688	41603.324219
718.814453	42032.035156
717.572266	41522.644531
716.330078	41588.976563
715.085938	41518.468750
713.843750	41520.398438
712.601563	41811.933594
711.357422	41616.746094
710.113281	41604.578125
708.869141	41674.816406
707.626953	41688.761719
706.380859	41893.566406
705.136719	41837.144531
703.892578	41820.914063
702.646484	41748.460938
701.402344	41862.742188
700.156250	41459.109375
698.910156	41589.449219
697.664063	41882.257813
696.417969	41438.734375
695.171875	41893.906250
693.925781	41857.613281
692.677734	41797.273438
691.431641	41706.882813
690.183594	41714.730469
688.935547	42079.222656
687.687500	42046.917969
686.439453	41996.601563
685.191406	42112.507813
683.943359	42018.140625
682.693359	41801.707031
681.445313	42089.687500
680.195313	41823.296875
678.945313	42367.218750
677.695313	42082.871094
676.445313	42580.531250
675.195313	42346.230469
673.945313	42365.886719
672.693359	42397.523438
671.443359	42431.140625
670.191406	42480.726563
668.939453	42586.218750
667.687500	42729.605469
666.435547	42571.449219
665.183594	42920.386719
663.929688	43017.710938
662.677734	42751.832031
661.423828	43036.679688
660.171875	42860.652344
658.917969	43179.261719
657.664063	43216.609375
656.410156	43134.335938
655.154297	43123.839844
653.900391	43555.714844
652.646484	43170.589844
651.390625	43028.617188
650.134766	43356.695313
648.878906	43565.171875
647.623047	43717.824219
646.367188	43231.523438
645.111328	43819.968750
643.855469	43817.289063
642.597656	43961.800781
641.341797	43883.515625
640.083984	44455.449219
638.826172	44583.839844
637.568359	44610.812500
636.310547	44639.757813
635.052734	44764.054688
633.792969	44560.542969
632.535156	44956.882813
631.275391	45071.105469
630.015625	44945.070313
628.755859	45714.234375
627.496094	45780.605469
626.236328	45729.886719
624.976563	46175.097656
623.714844	46253.230469
622.455078	46648.582031
621.193359	46589.796875
619.931641	46953.207031
618.671875	47286.746094
617.408203	47431.929688
616.146484	47434.429688
614.884766	48086.527344
613.623047	48221.558594
612.359375	48126.882813
611.095703	48628.019531
609.833984	48968.664063
608.570313	49117.250000
607.306641	49491.281250
606.041016	50387.292969
604.777344	50592.843750
603.513672	50827.964844
602.248047	51363.429688
600.982422	51963.894531
599.716797	51327.269531
598.451172	52125.035156
597.185547	52963.960938
595.919922	52996.902344
594.654297	53436.519531
593.386719	53589.753906
592.121094	54104.062500
590.853516	54251.175781
589.585938	54273.953125
588.318359	54708.921875
587.050781	55508.511719
585.783203	55566.500000
584.513672	56296.609375
583.246094	55950.417969
581.976563	56496.914063
580.707031	56300.527344
579.437500	56781.738281
578.167969	57248.968750
576.898438	57080.101563
575.628906	57324.656250
574.359375	57616.343750
573.087891	57640.316406
571.816406	57750.835938
570.546875	57967.515625
569.275391	58296.191406
568.003906	58736.792969
566.730469	59006.210938
565.458984	59051.480469
564.187500	58387.417969
562.914063	58819.781250
561.640625	58984.859375
560.367188	59024.191406
559.095703	59049.761719
557.820313	59291.238281
556.546875	59746.531250
555.273438	58945.882813
553.998047	59426.554688
552.724609	59279.406250
551.449219	59479.402344
550.173828	59579.324219
548.898438	59526.312500
547.623047	59604.625000
546.347656	59827.894531
545.070313	59953.125000
543.794922	59837.394531
542.517578	59952.773438
541.240234	59414.191406
539.962891	60112.917969
538.685547	59983.535156
537.408203	60083.128906
536.130859	60534.808594
534.851563	60452.347656
533.574219	60868.570313
532.294922	60377.457031
531.015625	60662.554688
529.736328	61252.410156
528.457031	60695.070313
527.177734	61132.304688
525.898438	60831.066406
524.617188	60278.039063
523.337891	61357.414063
522.056641	61052.398438
520.775391	61229.546875
519.494141	61326.625000
