#Wave		#Intensity
1319.062500	5266.437988
1317.935547	5120.086426
1316.808594	5172.372070
1315.679688	5200.255859
1314.552734	5323.428223
1313.423828	5262.640625
1312.294922	5170.857910
1311.167969	5267.387695
1310.039063	5193.354492
1308.908203	5044.062988
1307.779297	5127.279785
1306.650391	5126.354980
1305.521484	5249.361328
1304.390625	5131.143555
1303.261719	5181.100098
1302.130859	5206.707520
1301.000000	5207.979980
1299.869141	5069.954590
1298.738281	5093.357422
1297.607422	4939.930664
1296.476563	4998.705566
1295.343750	5103.857910
1294.212891	4959.347656
1293.080078	5113.059082
1291.949219	4948.725098
1290.816406	4936.792480
1289.683594	4913.826660
1288.550781	5140.268555
1287.417969	5011.353516
1286.285156	4995.004883
1285.152344	4837.486328
1284.017578	4984.379883
1282.884766	5109.169922
1281.750000	4854.708984
1280.617188	4994.906738
1279.482422	4815.490234
1278.347656	5039.376465
1277.212891	4926.108887
1276.078125	4962.665039
1274.943359	4893.497559
1273.806641	4921.238281
1272.671875	4900.536133
1271.535156	4802.802734
1270.400391	4784.329102
1269.263672	4900.081055
1268.126953	4978.392578
1266.990234	4845.522461
1265.853516	4952.403809
1264.716797	4751.425781
1263.580078	4972.597168
1262.441406	4962.907227
1261.304688	5102.651855
1260.166016	5081.955566
1259.029297	4773.494629
1257.890625	4834.129395
1256.751953	4918.896973
1255.613281	4854.336914
1254.474609	4871.020508
1253.335938	4885.502930
1252.195313	5003.114258
1251.056641	4912.257813
1249.916016	4920.143555
1248.777344	4763.539551
1247.636719	4769.256348
1246.496094	4893.358398
1245.355469	4929.736816
1244.214844	4871.864258
1243.074219	5144.879883
1241.933594	4951.160156
1240.791016	5057.593262
1239.650391	4988.788574
1238.507813	4880.595703
1237.367188	4741.793457
1236.224609	4981.702637
1235.082031	4921.714355
1233.939453	5069.607422
1232.796875	4926.495117
1231.654297	4831.553223
1230.509766	4817.557617
1229.367188	4899.769043
1228.222656	4975.392578
1227.080078	5016.018555
1225.935547	5078.481934
1224.791016	5016.386719
1223.646484	4866.935547
1222.501953	4979.624512
1221.357422	4904.478027
1220.212891	4955.987793
1219.066406	4887.420898
1217.921875	4984.746094
1216.775391	4857.282715
1215.628906	4930.579102
1214.484375	4999.486328
1213.337891	5079.272461
1212.191406	5054.366211
1211.042969	5068.710449
1209.896484	5015.478516
1208.750000	5010.210449
1207.601563	4872.030762
1206.455078	5051.963379
1205.306641	5081.540527
1204.158203	5204.749023
1203.011719	5016.554688
1201.863281	5107.075684
1200.712891	4927.672852
1199.564453	4896.312988
1198.416016	4999.859863
1197.267578	5177.331055
1196.117188	4978.470215
1194.966797	5051.501465
1193.818359	4957.095215
1192.667969	5121.401855
1191.517578	5163.938965
1190.367188	5165.174316
1189.216797	5157.718262
1188.064453	5137.231934
1186.914063	5086.347168
1185.763672	5117.994141
1184.611328	5032.395020
1183.458984	4948.997070
1182.306641	5034.906250
1181.156250	5086.066895
1180.003906	5113.345215
1178.849609	5197.007813
1177.697266	5128.834961
1176.544922	5229.810059
1175.390625	5211.516113
1174.238281	5355.788086
1173.083984	5220.456055
1171.929688	5122.006348
1170.777344	5077.749023
1169.623047	5299.911133
1168.466797	5318.436035
1167.312500	5378.090820
1166.158203	5288.359375
1165.003906	5412.926270
1163.847656	5215.024902
1162.691406	5317.924316
1161.537109	5210.962891
1160.380859	5318.150879
1159.224609	5237.175781
1158.068359	5396.205566
1156.912109	5239.591309
1155.753906	5411.528809
1154.597656	5216.074707
1153.441406	5444.123047
1152.283203	5479.850098
1151.125000	5584.670898
1149.966797	5523.195801
1148.808594	5517.871094
1147.650391	5547.061035
1146.492188	5576.250488
1145.333984	5605.440430
1144.175781	5634.629883
1143.015625	5663.819824
1141.857422	5686.507324
1140.697266	5795.427734
1139.537109	5667.187012
1138.376953	5825.641602
1137.216797	5859.055664
1136.056641	5810.588379
1134.896484	5852.608887
1133.736328	5909.689453
1132.574219	5887.077637
1131.414063	5817.110352
1130.251953	5938.740234
1129.089844	5991.458008
1127.927734	6078.583496
1126.765625	6030.144043
1125.603516	6127.984375
1124.441406	6058.047852
1123.279297	6192.398926
1122.115234	6083.779785
1120.953125	6160.044434
1119.789063	6182.556641
1118.625000	6329.677246
1117.462891	6283.407715
1116.298828	6516.366699
1115.132813	6388.479004
1113.968750	6428.103027
1112.804688	6566.456055
1111.640625	6648.956543
1110.474609	6368.783203
1109.308594	6803.138672
1108.144531	6490.863770
1106.978516	6749.176270
1105.812500	6737.219238
1104.646484	6843.178223
1103.480469	6925.519531
1102.312500	6750.662598
1101.146484	6730.141602
1099.980469	7015.974121
1098.812500	6993.269531
1097.644531	7139.750977
1096.476563	6926.473145
1095.310547	7239.887695
1094.140625	7170.070313
1092.972656	7303.570801
1091.804688	7231.626465
1090.636719	7313.726563
1089.466797	7179.782715
1088.298828	7400.854492
1087.128906	7324.667480
1085.958984	7261.333496
1084.789063	7616.909668
1083.619141	7645.426758
1082.449219	7588.476563
1081.279297	7875.443359
1080.107422	7871.861816
1078.937500	7708.139160
1077.765625	7817.734375
1076.595703	7952.901367
1075.423828	7874.614746
1074.251953	8063.062500
1073.080078	8112.778320
1071.908203	8350.167969
1070.736328	7888.018555
1069.562500	8227.701172
1068.390625	8283.744141
1067.216797	8463.379883
1066.044922	8329.707031
1064.871094	8594.489258
1063.697266	8543.915039
1062.523438	8612.623047
1061.349609	8600.391602
1060.173828	8607.324219
1059.000000	8633.410156
1057.826172	8667.999023
1056.650391	8913.224609
1055.474609	8766.920898
1054.300781	8701.496094
1053.125000	9082.679688
1051.949219	8910.910156
1050.773438	8960.287109
1049.595703	9237.065430
1048.419922	9326.738281
1047.244141	9280.401367
1046.066406	9276.566406
1044.888672	9138.928711
1043.710938	9430.280273
1042.535156	9536.817383
1041.357422	9465.008789
1040.177734	9388.982422
1039.000000	9673.705078
1037.822266	9563.722656
1036.642578	9648.922852
1035.464844	9604.726563
1034.285156	9893.437500
1033.105469	9842.851563
1031.925781	9692.665039
1030.746094	9729.018555
1029.566406	9981.471680
1028.386719	10255.015625
1027.207031	10032.850586
1026.025391	10064.876953
1024.845703	10109.593750
1023.664063	10103.491211
1022.482422	10234.956055
1021.300781	10302.890625
1020.119141	10108.462891
1018.937500	10332.922852
1017.755859	10331.010742
1016.574219	10447.507813
1015.390625	10333.528320
1014.207031	10435.184570
1013.025391	10467.064453
1011.841797	10454.561523
1010.658203	10708.236328
1009.474609	10596.423828
1008.291016	10467.756836
1007.107422	10328.581055
1005.921875	10658.083008
1004.738281	10438.721680
1003.552734	10611.928711
1002.367188	10565.655273
1001.183594	10673.382813
999.998047	10584.935547
998.812500	10614.599609
997.626953	10827.666016
996.439453	10661.248047
995.253906	10541.253906
994.066406	10598.293945
992.880859	10503.634766
991.693359	10792.343750
990.505859	10689.258789
989.318359	10708.328125
988.130859	10689.498047
986.943359	10664.360352
985.755859	10744.445313
984.566406	10471.046875
983.378906	10603.723633
982.189453	10641.710938
981.001953	10461.000977
979.812500	10517.919922
978.623047	10471.823242
977.433594	10373.204102
976.242188	10446.915039
975.052734	10381.947266
973.863281	10569.047852
972.671875	10554.480469
971.482422	10749.875977
970.291016	10414.102539
969.099609	10441.545898
967.908203	10452.190430
966.716797	10368.419922
965.525391	10448.295898
964.332031	10393.916992
963.140625	10266.167969
961.947266	10417.295898
960.755859	10532.732422
959.562500	10281.382813
958.369141	10449.182617
957.175781	10365.532227
955.982422	10154.147461
954.789063	10382.604492
953.593750	10296.917969
952.400391	10221.728516
951.205078	10236.563477
950.009766	10429.258789
948.816406	10134.409180
947.621094	10241.287109
946.425781	10446.419922
945.230469	10080.635742
944.033203	10285.720703
942.837891	10287.977539
941.640625	10286.054688
940.445313	10002.058594
939.248047	10380.391602
938.050781	10086.040039
936.853516	10109.211914
935.656250	10272.260742
934.458984	10147.177734
933.261719	9821.781250
932.062500	10014.003906
930.865234	10026.732422
929.666016	9930.989258
928.466797	10008.377930
927.269531	10066.971680
926.070313	9812.833008
924.869141	9911.041992
923.669922	9713.292969
922.470703	9959.415039
921.269531	9828.390625
920.070313	9995.252930
918.869141	9778.891602
917.667969	9893.649414
916.466797	9683.631836
915.265625	9765.063477
914.064453	9954.666016
912.863281	9615.766602
911.662109	9609.800781
910.458984	9797.245117
909.257813	9525.100586
908.054688	9812.273438
906.851563	9427.989258
905.648438	9665.198242
904.445313	9430.678711
903.242188	9478.761719
902.039063	9341.979492
900.833984	9406.671875
899.630859	9352.999023
898.425781	9212.164063
897.220703	9212.505859
896.015625	9279.246094
894.810547	9204.889648
893.605469	9028.924805
892.400391	9147.504883
891.195313	9096.020508
889.988281	8733.602539
888.783203	8808.644531
887.576172	8848.429688
886.369141	8832.258789
885.162109	8712.521484
883.955078	8661.173828
882.748047	8359.292969
881.541016	8664.118164
880.332031	8482.403320
879.125000	8306.965820
877.916016	8481.272461
876.707031	8531.389648
875.500000	8389.132813
874.291016	8182.823730
873.082031	8297.061523
871.871094	8208.673828
870.662109	8016.980957
869.453125	8149.780762
868.242188	7887.926758
867.031250	7902.960938
865.822266	7986.140625
864.611328	7966.047363
863.400391	7737.454590
862.187500	7781.400391
860.976563	7550.864258
859.765625	7658.788086
858.552734	7663.527344
857.341797	7472.329590
856.128906	7561.646973
854.916016	7448.884277
853.703125	7249.588867
852.490234	7289.434082
851.277344	7424.047852
850.064453	7371.138184
848.849609	7209.082031
847.636719	7364.226074
846.421875	7181.642090
845.207031	7013.536621
843.992188	7051.312012
842.777344	7109.650391
841.562500	6873.758789
840.347656	7094.611328
839.130859	6976.038086
837.916016	7194.730469
836.699219	7022.730469
835.482422	6910.402832
834.267578	7028.284180
833.050781	6952.981445
831.833984	6830.458496
830.615234	7030.441406
829.398438	6850.451660
828.181641	7128.371582
826.962891	6790.371582
825.744141	6739.825195
824.527344	6828.828613
823.308594	6901.385254
822.089844	7014.937012
820.869141	6833.135254
819.650391	6842.086914
818.431641	6894.084473
817.210938	6782.094238
815.992188	6957.034180
814.771484	6955.709473
813.550781	6823.285645
812.330078	6994.020508
811.109375	6822.733887
809.888672	6911.512695
808.666016	6885.633301
807.445313	6876.134766
806.222656	7036.463867
805.001953	6869.421387
803.779297	7127.864258
802.556641	6954.731934
801.333984	7098.565918
800.109375	7172.844238
798.886719	7026.369629
797.664063	7047.505371
796.439453	7015.515137
795.216797	6989.664551
793.992188	7227.264648
792.767578	7031.914063
791.542969	7097.936523
790.318359	7139.441406
789.091797	7013.599121
787.867188	6975.534180
786.642578	7092.511230
785.416016	6946.354004
784.189453	7269.235352
782.962891	7161.834473
781.736328	7097.277344
780.509766	7134.639160
779.283203	7123.085938
778.056641	7011.718750
776.828125	7232.378418
775.601563	7143.431152
774.373047	7172.602051
773.144531	7128.481445
771.916016	7190.205566
770.687500	7229.522949
769.458984	7323.752930
768.230469	7460.659668
767.000000	7253.835938
765.771484	7162.983887
764.541016	7434.007324
763.310547	7202.916992
762.080078	7329.553223
760.849609	7200.152832
759.619141	7519.709473
758.388672	7262.376465
757.156250	7496.517578
755.925781	7281.918945
754.693359	7404.331543
753.462891	7362.322754
752.230469	7407.573242
750.998047	7475.119629
749.765625	7408.782227
748.531250	7356.664551
747.298828	7385.660156
746.064453	7337.619629
744.832031	7516.573730
743.597656	7340.875488
742.363281	7434.675293
741.128906	7402.863770
739.894531	7423.713867
738.660156	7525.540527
737.425781	7463.364258
736.189453	7439.664551
734.955078	7523.216797
733.718750	7404.429688
732.482422	7750.903809
731.246094	7585.604492
730.009766	7420.368652
728.773438	7602.895508
727.537109	7666.104980
726.298828	7632.294922
725.062500	7780.328125
723.824219	7641.470215
722.585938	7736.934570
721.347656	7638.521484
720.109375	7851.037598
718.871094	7504.377441
717.632813	7712.800293
716.392578	7644.729492
715.154297	7780.424316
713.914063	7409.840820
712.673828	7775.401367
711.433594	7675.112305
710.193359	7760.302246
708.953125	7690.282715
707.712891	7928.566895
706.472656	7792.062500
705.230469	7985.923340
703.988281	7817.240234
702.748047	7755.327637
701.505859	7930.965332
700.263672	7758.363770
699.021484	7903.749023
697.777344	8002.807129
696.535156	8013.325684
695.291016	7895.136230
694.048828	8100.698242
692.804688	8018.720215
691.560547	8167.902832
690.316406	8019.631348
689.072266	7907.579590
687.828125	7944.210938
686.582031	8119.396973
685.337891	8147.940430
684.091797	7993.791016
682.847656	8148.793457
681.601563	7914.434570
680.355469	8266.009766
679.109375	8007.646484
677.861328	8316.950195
676.615234	8164.948730
675.369141	8283.648438
674.121094	8021.471680
672.873047	8172.215332
671.625000	8210.699219
670.376953	8251.170898
669.128906	8327.675781
667.880859	8205.912109
666.632813	8326.440430
665.382813	8302.802734
664.134766	8513.320313
662.884766	8501.659180
661.634766	8279.953125
660.384766	8474.350586
659.134766	8444.705078
657.884766	8399.076172
656.632813	8261.514648
655.382813	8497.730469
654.130859	8300.257813
652.880859	8328.607422
651.628906	8191.164063
650.376953	8441.185547
649.125000	8505.427734
647.871094	8439.891602
646.619141	8472.174805
645.367188	8670.063477
644.113281	8744.183594
642.859375	8435.303711
641.607422	8467.560547
640.353516	8434.006836
639.097656	8376.542969
637.843750	8496.486328
636.589844	8435.046875
635.333984	8477.230469
634.080078	8433.744141
632.824219	8479.893555
631.568359	8551.909180
630.312500	8414.867188
629.056641	8494.827148
627.800781	8479.237305
626.544922	8346.267578
625.287109	8629.089844
624.029297	8521.996094
622.773438	8526.294922
621.515625	8530.590820
620.257813	8520.971680
619.000000	8626.615234
617.742188	8609.032227
616.482422	8635.157227
615.224609	8714.895508
613.964844	8695.318359
612.705078	8967.585938
611.445313	8801.082031
610.185547	8993.840820
608.925781	9083.348633
607.666016	9035.943359
606.406250	8972.688477
605.144531	9171.208984
603.884766	8903.745117
602.623047	9028.859375
601.361328	9227.250000
600.099609	9647.480469
598.837891	9390.036133
597.576172	9612.005859
596.312500	9517.047852
595.050781	9477.562500
593.787109	9628.121094
592.523438	9681.644531
591.259766	9541.235352
589.996094	9695.647461
588.732422	9596.825195
587.468750	9933.096680
586.205078	9917.304688
584.939453	9863.959961
583.673828	9816.565430
582.410156	9992.472656
581.144531	9986.556641
579.878906	9980.642578
578.611328	9925.360352
577.345703	10112.952148
576.080078	10336.000977
574.812500	10335.941406
573.546875	10225.378906
572.279297	10469.973633
571.011719	10312.086914
569.744141	10347.526367
568.476563	10213.385742
567.207031	10150.263672
565.939453	10388.715820
564.669922	10394.551758
563.402344	10295.966797
562.132813	10471.215820
560.863281	10364.775391
559.593750	10451.336914
558.322266	10634.323242
557.052734	10370.456055
555.783203	10362.506836
554.511719	10478.508789
553.240234	10441.035156
551.968750	10610.073242
550.697266	10228.491211
549.425781	10576.398438
548.154297	10705.998047
546.882813	10487.723633
545.609375	10672.300781
544.337891	10605.370117
543.064453	10585.600586
541.791016	10707.212891
540.517578	10601.050781
539.244141	10773.642578
537.970703	10767.588867
536.695313	10863.559570
535.421875	10777.063477
534.146484	10878.876953
532.871094	10621.818359
531.595703	10741.265625
530.320313	10743.060547
529.044922	10836.958984
527.769531	10815.222656
526.492188	11010.930664
525.216797	10920.619141
523.939453	10951.745117
522.662109	10716.607422
521.384766	10963.068359
520.107422	11048.959961
518.830078	11177.862305
517.552734	11187.384766
516.273438	11202.770508
514.996094	11137.978516
513.716797	11212.016602
512.437500	11233.250977
511.158203	11221.252930
509.878906	11103.750977
508.599609	11529.358398
507.318359	11042.708984
506.039063	11263.125977
504.757813	11235.511719
503.476563	11569.012695
502.197266	11555.007813
500.916016	11185.900391
499.632813	11435.328125
498.351563	11419.406250
497.070313	11368.389648
495.787109	11516.250977
494.503906	11428.199219
493.222656	11618.863281
491.939453	11552.256836
490.656250	11754.506836
489.371094	11639.207031
488.087891	11718.680664
486.804688	11307.505859
485.519531	11433.727539
484.234375	11443.130859
482.949219	11575.111328
481.666016	11386.057617
480.378906	11603.572266
479.093750	11338.749023
477.808594	11355.935547
476.521484	11425.596680
475.236328	11398.058594
473.949219	11409.391602
472.662109	11463.458008
471.375000	11218.395508
470.087891	11522.975586
468.798828	11287.705078
467.511719	11312.632813
466.222656	11211.404297
464.935547	11341.113281
463.646484	11356.313477
462.357422	11227.981445
461.068359	11161.751953
459.779297	11275.853516
458.488281	11124.351563
457.199219	11075.622070
455.908203	11395.057617
454.619141	11146.758789
453.328125	11431.187500
452.037109	11461.827148
450.746094	11184.621094
449.453125	11430.156250
448.162109	11213.059570
446.869141	11427.531250
445.578125	11415.578125
444.285156	11401.695313
442.992188	11229.250977
441.699219	11623.347656
440.406250	11615.228516
439.111328	11402.256836
437.818359	11593.200195
436.523438	11511.680664
435.230469	11814.547852
433.935547	11773.566406
432.640625	11829.134766
431.345703	11944.517578
430.048828	11922.832031
428.753906	11710.133789
427.457031	11974.010742
426.162109	12110.486328
424.865234	11809.171875
423.568359	11988.039063
422.271484	12026.121094
420.974609	12108.511719
419.677734	12125.358398
418.378906	12103.668945
417.082031	12291.923828
415.783203	12320.275391
414.484375	12121.433594
413.185547	12494.358398
411.886719	12272.465820
410.587891	12597.107422
409.287109	12304.104492
407.988281	12343.954102
406.687500	12306.869141
405.386719	12075.620117
404.085938	12240.430664
402.785156	12335.991211
401.484375	12321.991211
400.183594	12382.916992
398.880859	12178.768555
397.580078	12347.230469
396.277344	12049.096680
394.974609	12119.622070
393.671875	12048.105469
392.369141	12070.633789
391.066406	12026.010742
389.763672	11998.666016
388.458984	11959.826172
387.154297	11857.734375
385.851563	11978.031250
384.546875	11793.569336
383.242188	11655.166016
381.937500	11497.661133
380.630859	11673.472656
379.326172	11715.171875
378.019531	11479.253906
376.712891	11727.697266
375.408203	11530.144531
374.101563	11485.736328
372.792969	11410.738281
371.486328	11465.824219
370.179688	11415.716797
368.871094	11411.512695
367.564453	11359.524414
366.255859	11236.847656
364.947266	11198.288086
363.638672	11006.922852
362.330078	11210.977539
361.019531	10874.563477
359.710938	11028.925781
358.400391	11185.132813
357.089844	10955.791992
355.781250	10810.493164
354.470703	10997.169922
353.158203	11113.204102
351.847656	11000.375000
350.537109	10940.970703
349.224609	11047.414063
347.914063	10746.003906
346.601563	10919.127930
345.289063	10833.116211
343.976563	10756.661133
342.662109	10735.456055
341.349609	10520.077148
340.037109	10457.052734
338.722656	10793.677734
337.408203	10603.148438
336.093750	10464.055664
334.779297	10743.418945
333.464844	10459.842773
332.150391	10412.111328
330.833984	10638.096680
329.519531	10592.247070
328.203125	10390.624023
326.886719	10500.603516
325.570313	10435.816406
324.253906	10393.839844
322.937500	10372.762695
321.619141	10184.668945
320.302734	10230.057617
318.984375	10275.426758
317.666016	10347.333984
316.347656	10199.220703
315.029297	10164.931641
313.710938	10396.054688
312.392578	10357.947266
311.072266	10420.288086
309.753906	10365.139648
308.433594	10355.472656
307.113281	10319.296875
305.792969	10506.556641
304.472656	10211.018555
303.152344	10530.709961
301.830078	10441.541016
300.509766	10426.192383
299.187500	10354.103516
297.865234	10478.719727
296.542969	10639.209961
295.220703	10582.242188
293.898438	10597.117188
292.574219	10491.050781
291.251953	10411.475586
