#Wave		#Intensity
4002.113281	7209.087891
4001.415039	7230.564941
4000.716797	7272.349609
4000.017578	7181.722656
3999.319336	7216.346191
3998.620117	7086.407715
3997.920898	7117.458008
3997.221680	7280.812012
3996.522461	7007.906738
3995.823242	6920.983398
3995.124023	7180.795898
3994.424805	7129.609375
3993.724609	7171.341797
3993.025391	7238.068848
3992.325195	7165.465332
3991.625000	7278.600098
3990.924805	7216.725586
3990.224609	7144.160156
3989.524414	7132.302734
3988.824219	7256.077148
3988.124023	7126.442383
3987.422852	7303.697266
3986.721680	7256.146973
3986.021484	7265.681641
3985.320313	7022.007324
3984.619141	7231.255859
3983.917969	6944.883301
3983.216797	7246.754883
3982.514648	7174.311035
3981.813477	7344.202148
3981.112305	7179.131348
3980.410156	7120.981445
3979.708008	7119.837402
3979.005859	7243.333008
3978.303711	7146.034668
3977.601563	7169.806152
3976.899414	7243.401855
3976.197266	7281.385742
3975.494141	7173.467773
3974.791992	7360.873047
3974.088867	7224.520020
3973.385742	7290.934082
3972.682617	7108.407715
3971.979492	7007.714355
3971.276367	7273.201660
3970.573242	7112.090820
3969.869141	7214.005859
3969.166016	7035.190430
3968.461914	7311.159668
3967.758789	7349.057129
3967.054688	7227.128906
3966.350586	7261.476074
3965.646484	7207.055664
3964.941406	7163.301758
3964.237305	7172.798340
3963.533203	7125.515137
3962.828125	7103.082520
3962.124023	7222.554199
3961.418945	7139.816406
3960.713867	7174.132813
3960.008789	7141.068848
3959.303711	7246.276367
3958.598633	7383.351074
3957.892578	7226.229004
3957.187500	7157.743164
3956.481445	7238.079590
3955.776367	7173.155762
3955.070313	7363.256836
3954.364258	7323.121582
3953.658203	7360.892090
3952.952148	7218.108887
3952.245117	7195.712891
3951.539063	7205.174316
3950.832031	7097.867676
3950.125977	7209.935547
3949.418945	7010.695801
3948.711914	7320.791992
3948.004883	7372.657227
3947.297852	7177.021973
3946.590820	7129.915527
3945.883789	7273.678711
3945.175781	7099.355469
3944.468750	7324.340820
3943.760742	7178.326660
3943.052734	7269.007813
3942.344727	7338.470703
3941.636719	7097.188477
3940.928711	7194.899414
3940.220703	7246.691406
3939.511719	7344.346680
3938.803711	7117.332031
3938.094727	7193.807617
3937.386719	7499.548828
3936.677734	6993.987305
3935.968750	7140.973633
3935.259766	7171.559570
3934.550781	7121.054199
3933.840820	7289.097168
3933.131836	7354.885742
3932.421875	7364.275391
3931.712891	7243.310547
3931.002930	7238.625488
3930.292969	7269.160156
3929.583008	7320.812988
3928.873047	7330.199707
3928.163086	7279.740723
3927.452148	7324.327148
3926.742188	7214.060547
3926.031250	7219.939453
3925.321289	7215.262207
3924.610352	7101.548828
3923.899414	7223.496582
3923.188477	7296.177734
3922.477539	7358.288574
3921.765625	7005.597168
3921.054688	7296.179199
3920.342773	7168.504883
3919.631836	7058.438477
3918.919922	7229.435059
3918.208008	7070.221680
3917.496094	7353.536133
3916.784180	7310.222168
3916.072266	7161.604004
3915.359375	7388.605957
3914.647461	7141.757813
3913.934570	7291.494141
3913.222656	7311.373535
3912.509766	7233.029297
3911.796875	7305.519531
3911.083984	7416.560059
3910.371094	7176.955566
3909.658203	7393.145996
3908.944336	7342.890137
3908.231445	7383.764648
3907.517578	7242.425781
3906.803711	7381.394531
3906.089844	7324.166504
3905.375977	7186.407227
3904.662109	7209.765137
3903.948242	7380.158203
3903.234375	7364.971680
3902.519531	7230.793945
3901.805664	7268.125977
3901.090820	7259.961914
3900.375977	7178.337891
3899.661133	7324.087402
3898.946289	7228.490723
3898.231445	7213.344727
3897.516602	7261.130371
3896.801758	7291.423828
3896.085938	7377.625000
3895.370117	7362.464355
3894.655273	7207.558594
3893.939453	7209.895508
3893.223633	7229.693848
3892.507813	7315.834961
3891.791992	7293.711914
3891.075195	7358.869141
3890.359375	7273.919922
3889.642578	7206.446289
3888.925781	7072.698730
3888.209961	7123.894043
3887.493164	7157.632324
3886.776367	7390.150879
3886.059570	7511.010254
3885.341797	7161.160156
3884.625000	7379.622070
3883.907227	7134.465332
3883.190430	7467.858398
3882.472656	7316.838867
3881.754883	7214.639160
3881.037109	7432.916504
3880.319336	7281.975098
3879.601563	7305.180664
3878.883789	7317.934082
3878.165039	7403.781738
3877.447266	7308.625488
3876.728516	7317.892090
3876.009766	7236.697266
3875.291016	7259.886230
3874.572266	7387.410156
3873.853516	7281.899902
3873.134766	7298.116211
3872.415039	7446.430176
3871.696289	7493.897461
3870.976563	7558.725586
3870.256836	7178.768555
3869.537109	7358.272949
3868.817383	7388.354980
3868.097656	7335.074219
3867.377930	7337.370117
3866.658203	7426.463379
3865.937500	7341.958984
3865.217773	7271.364746
3864.497070	7311.841309
3863.776367	7619.472168
3863.055664	7385.816895
3862.334961	7284.042969
3861.614258	7244.726563
3860.893555	7378.795898
3860.171875	7332.542480
3859.451172	7490.818848
3858.729492	7489.617676
3858.007813	7356.736328
3857.287109	7414.456055
3856.565430	7260.844727
3855.842773	7360.124023
3855.121094	7438.593262
3854.399414	7302.363281
3853.676758	7276.958984
3852.955078	7424.630371
3852.232422	7357.684082
3851.509766	7207.712891
3850.787109	7538.687988
3850.064453	7423.327148
3849.341797	7352.964844
3848.619141	7303.373047
3847.895508	7478.533203
3847.172852	7466.962891
3846.449219	7465.765137
3845.725586	7353.981934
3845.001953	7418.452148
3844.278320	7621.090332
3843.554688	7357.352539
3842.831055	7511.584473
3842.107422	7220.323730
3841.382813	7488.460449
3840.659180	7297.402832
3839.934570	7389.419922
3839.209961	7301.963867
3838.485352	7349.096680
3837.760742	7313.420898
3837.036133	7419.172363
3836.310547	7486.955078
3835.585938	7430.585449
3834.860352	7587.979492
3834.135742	7500.588379
3833.410156	7420.118164
3832.684570	7336.227539
3831.958984	7259.254395
3831.233398	7423.438477
3830.507813	7436.024902
3829.781250	7245.431641
3829.055664	7433.640137
3828.329102	7311.958984
3827.602539	7434.698242
3826.875977	7471.361816
3826.149414	7322.205566
3825.422852	7314.150879
3824.696289	7337.056641
3823.969727	7287.730957
3823.242188	7300.316895
3822.515625	7388.537598
3821.788086	7352.977051
3821.060547	7551.145508
3820.333008	7436.531250
3819.605469	7222.311523
3818.877930	7238.330566
3818.150391	7347.083984
3817.421875	7297.826172
3816.694336	7430.571289
3815.965820	7508.342773
3815.237305	7438.486328
3814.508789	7396.108887
3813.780273	7439.532715
3813.051758	7393.737305
3812.323242	7299.930664
3811.593750	7528.561035
3810.865234	7482.772949
3810.135742	7529.576172
3809.407227	7326.104004
3808.677734	7263.231445
3807.948242	7621.914551
3807.218750	7480.203125
3806.488281	7417.335449
3805.758789	7440.124512
3805.029297	7517.704590
3804.298828	7341.856445
3803.568359	7515.294434
3802.837891	7527.782715
3802.107422	7506.039551
3801.376953	7326.882813
3800.646484	7247.010742
3799.916016	7526.377441
3799.185547	7658.571777
3798.454102	7349.545410
3797.722656	7334.689453
3796.992188	7131.798828
3796.260742	7465.652832
3795.529297	7573.825195
3794.796875	7637.539063
3794.065430	7588.480957
3793.333984	7341.301758
3792.601563	7541.645020
3791.870117	7407.249023
3791.137695	7505.082031
3790.405273	7473.153320
3789.672852	7495.849121
3788.940430	7504.886230
3788.208008	7633.351074
3787.474609	7499.068359
3786.742188	7392.118652
3786.008789	7353.416016
3785.276367	7546.614746
3784.542969	7773.847168
3783.809570	7564.649902
3783.076172	7696.368164
3782.342773	7415.683105
3781.608398	7503.086914
3780.875000	7566.614258
3780.140625	7442.774414
3779.407227	7509.696289
3778.672852	7539.139648
3777.938477	7653.689941
3777.204102	7492.469238
3776.469727	7508.286133
3775.735352	7581.949219
3775.000000	7560.318848
3774.265625	7412.823730
3773.530273	7704.155273
3772.794922	7553.283203
3772.059570	7436.462402
3771.324219	7547.462402
3770.588867	7780.798340
3769.853516	7534.847168
3769.118164	7625.388672
3768.381836	7546.021973
3767.646484	7650.120605
3766.910156	7716.824219
3766.173828	7627.292969
3765.437500	7524.208496
3764.701172	7417.761719
3763.964844	7443.727539
3763.227539	7486.653320
3762.491211	7651.721191
3761.753906	7552.106934
3761.017578	7608.562988
3760.280273	7424.197754
3759.542969	7663.771973
3758.805664	7720.182617
3758.068359	7600.296387
3757.331055	7738.044434
3756.592773	7726.637695
3755.855469	7664.409180
3755.117188	7646.242188
3754.378906	7766.957520
3753.640625	7420.269043
3752.902344	7564.684570
3752.164063	7593.942871
3751.425781	7636.731445
3750.686523	7682.891113
3749.948242	7725.651855
3749.208984	7514.639648
3748.470703	7665.666016
3747.731445	7644.143555
3746.992188	7781.573242
3746.252930	7773.563477
3745.512695	7724.987305
3744.773438	7811.634277
3744.034180	7654.918457
3743.293945	7704.378418
3742.553711	7740.308105
3741.813477	7833.652344
3741.073242	7720.939941
3740.333008	7783.864258
3739.592773	7647.560547
3738.852539	7805.000977
3738.111328	7925.261719
3737.371094	7802.499512
3736.629883	7747.261230
3735.888672	7708.909180
3735.147461	7684.061523
3734.406250	7625.495605
3733.665039	7641.133789
3732.923828	7916.375488
3732.181641	7736.443848
3731.440430	7681.276855
3730.698242	7707.005371
3729.956055	7651.860352
3729.214844	7866.239746
3728.472656	7972.764648
3727.729492	7627.975586
3726.987305	7805.215820
3726.245117	7750.098145
3725.501953	7698.364258
3724.759766	7717.324219
3724.016602	7817.039551
3723.273438	7768.683594
3722.530273	7962.549805
3721.787109	7833.462891
3721.043945	7798.578613
3720.299805	7891.475098
3719.556641	7732.204590
3718.812500	7962.894531
3718.068359	7981.783203
3717.325195	7768.811035
3716.581055	7744.048340
3715.835938	7843.581543
3715.091797	7849.041504
3714.347656	8008.970703
3713.602539	7839.811523
3712.858398	7986.262695
3712.113281	7766.813965
3711.368164	7701.807129
3710.623047	7764.325195
3709.877930	7645.661621
3709.132813	7812.151367
3708.387695	7908.158691
3707.641602	8265.685547
3706.896484	7999.499512
3706.150391	7830.610352
3705.404297	7839.410645
3704.658203	7854.909668
3703.912109	7920.662109
3703.166016	7929.442871
3702.419922	8015.258301
3701.672852	7772.851563
3700.926758	7868.708984
3700.179688	7924.361816
3699.432617	7775.810547
3698.685547	7985.411621
3697.938477	7940.630859
3697.191406	7775.418945
3696.444336	8011.680176
3695.696289	7933.469727
3694.949219	8005.769043
3694.201172	8014.516602
3693.454102	7886.197754
3692.706055	7908.331543
3691.958008	8107.581543
3691.208984	7985.991699
3690.460938	8058.211426
3689.712891	7823.096191
3688.963867	7768.405762
3688.215820	7857.321289
3687.466797	7695.802734
3686.717773	7988.332031
3685.968750	8093.857910
3685.219727	7872.309570
3684.470703	8044.551758
3683.720703	7909.820313
3682.971680	8028.632324
3682.221680	8244.121094
3681.471680	8006.052734
3680.722656	7941.425293
3679.972656	8090.155762
3679.221680	8332.159180
3678.471680	8077.566895
3677.721680	7929.673340
3676.970703	7988.365723
3676.220703	8223.567383
3675.469727	8228.910156
3674.718750	8021.152832
3673.967773	8249.578125
3673.216797	8171.698242
3672.465820	8067.219238
3671.714844	8089.219238
3670.962891	8111.212402
3670.211914	7990.160156
3669.459961	8095.310059
3668.708008	8120.616211
3667.956055	8106.015625
3667.204102	8018.284180
3666.452148	8193.161133
3665.699219	8324.778320
3664.947266	8230.408203
3664.194336	8308.822266
3663.442383	8174.625000
3662.689453	8213.168945
3661.936523	8255.020508
3661.183594	8280.258789
3660.430664	8278.932617
3659.676758	8251.053711
3658.923828	8478.707031
3658.169922	8454.123047
3657.416992	8472.672852
3656.663086	8428.196289
3655.909180	8413.580078
3655.155273	8445.390625
3654.401367	8331.317383
3653.646484	8465.887695
3652.892578	8524.187500
3652.137695	8439.979492
3651.383789	8415.435547
3650.628906	8606.219727
3649.874023	8498.853516
3649.119141	8411.391602
3648.364258	8691.482422
3647.609375	8329.244141
3646.853516	8374.249023
3646.098633	8498.666992
3645.342773	8401.346680
3644.586914	8628.279297
3643.831055	8408.579102
3643.075195	8509.758789
3642.319336	8657.201172
3641.563477	8685.571289
3640.806641	8717.237305
3640.050781	8854.659180
3639.293945	8896.201172
3638.537109	8706.439453
3637.780273	8609.239258
3637.023438	8545.101563
3636.266602	8738.583984
3635.509766	8555.572266
3634.752930	8689.563477
3633.995117	8981.958008
3633.237305	8815.497070
3632.480469	8850.383789
3631.722656	8700.493164
3630.964844	8873.938477
3630.207031	8994.555664
3629.448242	8953.541016
3628.690430	9041.132813
3627.931641	8891.331055
3627.173828	8959.126953
3626.415039	8947.804688
3625.656250	9058.407227
3624.897461	9126.143555
3624.138672	9151.034180
3623.379883	9116.631836
3622.620117	8999.915039
3621.861328	8975.424805
3621.101563	9224.178711
3620.341797	9245.742188
3619.582031	9053.385742
3618.822266	9084.839844
3618.062500	9310.386719
3617.302734	9039.166992
3616.542969	9290.959961
3615.782227	9194.110352
3615.021484	9212.364258
3614.261719	9201.026367
3613.500977	9275.147461
3612.740234	9214.509766
3611.979492	9305.032227
3611.217773	9346.248047
3610.457031	9288.913086
3609.695313	9431.924805
3608.934570	9417.279297
3608.172852	9402.638672
3607.411133	9171.356445
3606.649414	9419.318359
3605.887695	9270.143555
3605.125977	9504.885742
3604.363281	9277.014648
3603.601563	9229.609375
3602.838867	9388.820313
3602.076172	9623.392578
3601.314453	9320.246094
3600.551758	9331.864258
3599.788086	9382.804688
3599.025391	9479.604492
3598.262695	9383.075195
3597.499023	9411.053711
3596.736328	9501.250000
3595.972656	9470.255859
3595.208984	9445.820313
3594.445313	9663.637695
3593.681641	9711.185547
3592.916992	9510.004883
3592.153320	9393.960938
3591.389648	9562.573242
3590.625000	9495.622070
3589.860352	9399.257813
3589.095703	9456.610352
3588.331055	9553.177734
3587.566406	9486.269531
3586.801758	9425.919922
3586.036133	9460.355469
3585.271484	9498.047852
3584.505859	9362.587891
3583.741211	9628.920898
3582.975586	9274.679688
3582.209961	9485.432617
3581.443359	9585.118164
3580.677734	9528.091797
3579.912109	9304.637695
3579.145508	9449.987305
3578.379883	9435.422852
3577.613281	9600.277344
3576.846680	9507.416016
3576.080078	9509.153320
3575.313477	9520.671875
3574.545898	9548.486328
3573.779297	9605.626953
3573.012695	9519.356445
3572.245117	9364.685547
3571.477539	9682.458984
3570.709961	9456.149414
3569.942383	9402.524414
3569.174805	9674.549805
3568.407227	9503.698242
3567.638672	9450.090820
3566.871094	9572.257813
3566.102539	9225.774414
3565.333984	9354.445313
3564.565430	9424.517578
3563.796875	9432.765625
3563.028320	9545.079102
3562.259766	9540.298828
3561.490234	9418.479492
3560.721680	9384.463867
3559.952148	9405.710938
3559.182617	9283.970703
3558.413086	9490.421875
3557.643555	9332.972656
3556.874023	9497.125000
3556.104492	9291.012695
3555.333984	9198.609375
3554.564453	9427.632813
3553.793945	9396.909180
3553.023438	9499.255859
3552.252930	9445.816406
3551.482422	9454.036133
3550.711914	9442.790039
3549.941406	9418.574219
3549.169922	9212.768555
3548.399414	9392.860352
3547.627930	9355.696289
3546.856445	9402.815430
3546.084961	9355.939453
3545.313477	9312.317383
3544.541992	9424.214844
3543.770508	9238.073242
3542.998047	9476.251953
3542.226563	9403.495117
3541.454102	9350.186523
3540.681641	9507.305664
3539.909180	9246.857422
3539.136719	9433.066406
3538.364258	9567.447266
3537.591797	9255.353516
3536.818359	9231.229492
3536.045898	9462.596680
3535.272461	9412.579102
3534.499023	9168.600586
3533.725586	9309.358398
3532.952148	9362.808594
3532.178711	9215.896484
3531.404297	9182.111328
3530.630859	9419.685547
3529.856445	9250.225586
3529.082031	9248.743164
3528.308594	9172.999023
3527.534180	9261.921875
3526.759766	9515.430664
3525.984375	9171.818359
3525.209961	9163.895508
3524.434570	9159.201172
3523.660156	9102.896484
3522.884766	9198.193359
3522.109375	9187.045898
3521.333984	9201.694336
3520.558594	9242.126953
3519.783203	9221.307617
3519.006836	9197.272461
3518.231445	9031.472656
3517.455078	9174.996094
3516.678711	9035.021484
3515.902344	9265.451172
3515.125977	8912.985352
3514.349609	9153.019531
3513.573242	9006.699219
3512.796875	9066.407227
3512.019531	9196.889648
3511.242188	9095.675781
3510.465820	9242.197266
3509.688477	9105.626953
3508.911133	9084.873047
3508.132813	9134.863281
3507.355469	9175.192383
3506.578125	9170.507813
3505.799805	9194.749023
3505.021484	9055.103516
3504.244141	9159.674805
3503.465820	9129.296875
3502.687500	9079.657227
3501.908203	9213.075195
3501.129883	9320.763672
3500.351563	9187.651367
3499.572266	9288.889648
3498.792969	9220.008789
3498.014648	9257.035156
3497.235352	9056.645508
3496.455078	9145.008789
3495.675781	9297.486328
3494.896484	9033.053711
3494.116211	9118.170898
3493.336914	9193.644531
3492.556641	9083.198242
3491.776367	9020.855469
3490.996094	9160.388672
3490.215820	9030.779297
3489.435547	9151.046875
3488.655273	9024.682617
3487.874023	9084.075195
3487.092773	9153.051758
3486.312500	9164.388672
3485.531250	9124.514648
3484.750000	9148.652344
3483.968750	9095.996094
3483.186523	9136.124023
3482.405273	9192.231445
3481.623047	9014.874023
3480.841797	9218.062500
3480.059570	9258.144531
3479.277344	8956.203125
3478.495117	9124.147461
3477.712891	9323.992188
3476.930664	9146.782227
3476.147461	9209.203125
3475.365234	8990.548828
3474.582031	9104.066406
3473.798828	9319.715820
3473.015625	9222.455078
3472.232422	9122.032227
3471.449219	9171.630859
3470.666016	9109.537109
3469.881836	9028.321289
3469.098633	9173.601563
3468.314453	9121.104492
3467.530273	9177.039063
3466.746094	9121.369141
3465.961914	9040.215820
3465.177734	9172.627930
3464.392578	9298.623047
3463.608398	9077.290039
3462.823242	9177.775391
3462.039063	9316.449219
3461.253906	8830.897461
3460.468750	9084.208984
3459.683594	9324.705078
3458.897461	9221.352539
3458.112305	9156.223633
3457.326172	9275.673828
3456.541016	9150.107422
3455.754883	9155.002930
3454.968750	9118.550781
3454.182617	9136.168945
3453.396484	9169.679688
3452.610352	9060.124023
3451.823242	9058.671875
3451.037109	9130.313477
3450.250000	9068.478516
3449.462891	9121.033203
3448.675781	8894.043945
3447.888672	9257.851563
3447.101563	9075.368164
3446.314453	9140.586914
3445.526367	9158.167969
3444.739258	9074.178711
3443.951172	8904.535156
3443.163086	9325.101563
3442.375000	9184.022461
3441.586914	9204.753906
3440.798828	9035.196289
3440.009766	9185.949219
3439.221680	9143.261719
3438.432617	9281.269531
3437.644531	9289.290039
3436.855469	9325.826172
3436.066406	9257.797852
3435.277344	8964.875977
3434.487305	9042.621094
3433.698242	9088.673828
3432.908203	9004.893555
3432.119141	8955.963867
3431.329102	8967.189453
3430.539063	9146.143555
3429.749023	9151.005859
3428.958984	9029.317383
3428.168945	8913.993164
3427.377930	9039.073242
3426.587891	8939.595703
3425.796875	9102.572266
3425.005859	9050.533203
3424.214844	9004.833008
3423.423828	8974.948242
3422.632813	9039.863281
3421.840820	9063.687500
3421.049805	9179.105469
3420.257813	8864.975586
3419.466797	9116.166992
3418.674805	9108.391602
3417.882813	8961.725586
3417.090820	9174.907227
3416.297852	9223.926758
3415.505859	9149.879883
3414.713867	8962.290039
3413.920898	9162.717773
3413.127930	9167.555664
3412.334961	9166.085938
3411.541992	9038.512695
3410.749023	9137.930664
3409.956055	8982.038086
3409.162109	9125.548828
3408.369141	8972.857422
3407.575195	9128.922852
3406.781250	9020.374023
3405.987305	9081.909180
3405.193359	8998.590820
3404.399414	8912.150391
3403.605469	9017.739258
3402.810547	8814.881836
3402.016602	9191.054688
3401.221680	8947.335938
3400.426758	9059.140625
3399.631836	8774.635742
3398.836914	8965.044922
3398.041992	8847.279297
3397.247070	8993.606445
3396.451172	9014.165039
3395.655273	9059.857422
3394.860352	8939.008789
3394.064453	8855.896484
3393.268555	9118.321289
3392.472656	8868.759766
3391.675781	8889.318359
3390.879883	8840.800781
3390.083008	9165.837891
3389.287109	8916.427734
3388.490234	8811.445313
3387.693359	8970.043945
3386.896484	8981.153320
3386.099609	9255.722656
3385.301758	8959.458008
3384.504883	9114.794922
3383.707031	8972.260742
3382.909180	8945.746094
3382.112305	9063.402344
3381.314453	8830.073242
